% Measurement ID: 1726
% Mode ID: S
% Date and time: 2020-07-15 08:26:28
% Sample ID: SPT10-27
% Measurement type: spectrum
% Frequency [Hz]: 1404839.420081828
% Quality factor: 55568.35988572393
% Temperature [K]: 293.0
% Pressure [mBar]: 6.35e-08
% Notes: 
% 
%
% measurement data
% frequency [Hz], power [dBm]
1404796.0, -120.5964
1404796.0, -120.5623
1404796.0, -120.7417
1404796.0, -121.1347
1404797.0, -121.1395
1404797.0, -120.9568
1404797.0, -120.8628
1404797.0, -120.7654
1404797.0, -120.713
1404797.0, -120.6894
1404797.0, -121.5267
1404797.0, -121.741
1404798.0, -121.3322
1404798.0, -121.2445
1404798.0, -121.163
1404798.0, -121.2866
1404798.0, -121.5488
1404798.0, -121.7202
1404798.0, -121.8771
1404799.0, -121.8223
1404799.0, -121.6215
1404799.0, -121.9534
1404799.0, -122.3182
1404799.0, -122.716
1404799.0, -122.554
1404799.0, -122.0298
1404799.0, -121.7243
1404800.0, -121.4438
1404800.0, -121.2513
1404800.0, -121.1259
1404800.0, -120.799
1404800.0, -120.3603
1404800.0, -120.414
1404800.0, -120.4707
1404801.0, -120.5303
1404801.0, -120.6486
1404801.0, -120.807
1404801.0, -120.702
1404801.0, -120.4347
1404801.0, -120.4955
1404801.0, -120.7208
1404801.0, -121.1253
1404802.0, -121.7043
1404802.0, -122.0859
1404802.0, -121.8051
1404802.0, -120.8618
1404802.0, -120.4656
1404802.0, -120.2133
1404802.0, -120.0441
1404803.0, -119.9784
1404803.0, -119.9121
1404803.0, -119.8799
1404803.0, -119.5982
1404803.0, -119.1614
1404803.0, -118.9158
1404803.0, -118.8373
1404803.0, -118.9261
1404804.0, -119.0619
1404804.0, -119.2848
1404804.0, -119.4802
1404804.0, -119.6863
1404804.0, -119.8698
1404804.0, -120.0418
1404804.0, -120.0769
1404805.0, -120.0169
1404805.0, -119.5369
1404805.0, -119.2511
1404805.0, -119.1596
1404805.0, -118.9714
1404805.0, -118.7836
1404805.0, -118.7344
1404805.0, -118.7777
1404806.0, -118.8097
1404806.0, -118.8649
1404806.0, -118.9974
1404806.0, -119.1894
1404806.0, -119.9676
1404806.0, -120.1671
1404806.0, -119.7877
1404807.0, -119.6103
1404807.0, -119.3745
1404807.0, -119.3477
1404807.0, -119.4408
1404807.0, -119.4873
1404807.0, -119.5427
1404807.0, -119.539
1404807.0, -119.499
1404808.0, -118.6956
1404808.0, -118.3912
1404808.0, -118.5859
1404808.0, -118.6162
1404808.0, -118.7034
1404808.0, -118.7278
1404808.0, -118.7293
1404809.0, -118.8005
1404809.0, -118.9104
1404809.0, -118.8908
1404809.0, -118.7978
1404809.0, -118.4531
1404809.0, -118.3362
1404809.0, -118.4469
1404809.0, -118.6164
1404810.0, -118.9009
1404810.0, -118.6739
1404810.0, -118.1443
1404810.0, -117.7435
1404810.0, -117.3278
1404810.0, -117.294
1404810.0, -117.5099
1404811.0, -117.834
1404811.0, -117.8865
1404811.0, -117.6673
1404811.0, -117.7639
1404811.0, -117.9804
1404811.0, -118.2483
1404811.0, -118.5904
1404811.0, -118.5686
1404812.0, -118.3288
1404812.0, -118.1461
1404812.0, -117.9288
1404812.0, -117.9947
1404812.0, -117.9589
1404812.0, -117.8213
1404812.0, -117.5832
1404813.0, -117.2443
1404813.0, -117.2367
1404813.0, -117.4163
1404813.0, -117.3937
1404813.0, -117.2989
1404813.0, -117.4984
1404813.0, -117.8701
1404813.0, -117.5181
1404814.0, -117.3027
1404814.0, -117.2239
1404814.0, -117.2328
1404814.0, -117.3457
1404814.0, -117.6233
1404814.0, -118.0454
1404814.0, -118.2988
1404815.0, -118.4878
1404815.0, -117.8238
1404815.0, -117.6121
1404815.0, -117.8528
1404815.0, -117.5309
1404815.0, -116.9849
1404815.0, -116.8528
1404815.0, -116.9219
1404816.0, -116.97
1404816.0, -117.0712
1404816.0, -117.0797
1404816.0, -117.044
1404816.0, -116.7134
1404816.0, -116.4225
1404816.0, -116.1711
1404817.0, -116.1071
1404817.0, -116.181
1404817.0, -116.2122
1404817.0, -116.261
1404817.0, -116.2675
1404817.0, -116.2517
1404817.0, -116.1703
1404817.0, -116.0377
1404818.0, -116.3253
1404818.0, -116.2483
1404818.0, -115.8066
1404818.0, -115.9223
1404818.0, -116.288
1404818.0, -116.5348
1404818.0, -116.7856
1404819.0, -116.7925
1404819.0, -116.638
1404819.0, -116.4979
1404819.0, -116.3136
1404819.0, -116.1685
1404819.0, -116.0513
1404819.0, -115.9623
1404819.0, -115.5499
1404820.0, -114.9313
1404820.0, -114.6542
1404820.0, -114.536
1404820.0, -114.2433
1404820.0, -113.8872
1404820.0, -113.9309
1404820.0, -114.2199
1404821.0, -114.8469
1404821.0, -114.7625
1404821.0, -113.9666
1404821.0, -113.678
1404821.0, -113.4905
1404821.0, -113.4335
1404821.0, -113.4972
1404821.0, -113.5596
1404822.0, -113.6612
1404822.0, -113.8536
1404822.0, -114.1196
1404822.0, -113.9321
1404822.0, -113.8081
1404822.0, -113.7476
1404822.0, -113.6826
1404823.0, -113.6357
1404823.0, -113.6648
1404823.0, -113.7506
1404823.0, -113.6201
1404823.0, -113.3642
1404823.0, -113.1897
1404823.0, -113.0277
1404823.0, -113.1267
1404824.0, -113.1345
1404824.0, -113.051
1404824.0, -112.9547
1404824.0, -112.8192
1404824.0, -112.8836
1404824.0, -113.0681
1404824.0, -113.1147
1404825.0, -113.1095
1404825.0, -113.0312
1404825.0, -112.8869
1404825.0, -112.8632
1404825.0, -112.7019
1404825.0, -112.4028
1404825.0, -112.2868
1404825.0, -112.247
1404826.0, -112.1552
1404826.0, -112.0542
1404826.0, -111.9927
1404826.0, -111.9547
1404826.0, -112.1373
1404826.0, -112.475
1404826.0, -112.4611
1404827.0, -112.402
1404827.0, -112.2977
1404827.0, -112.3046
1404827.0, -112.3707
1404827.0, -112.5475
1404827.0, -112.8177
1404827.0, -112.7761
1404827.0, -112.5577
1404828.0, -112.0033
1404828.0, -111.166
1404828.0, -110.4618
1404828.0, -110.0857
1404828.0, -110.0377
1404828.0, -109.9421
1404828.0, -109.924
1404829.0, -109.9281
1404829.0, -109.9729
1404829.0, -110.1398
1404829.0, -110.4015
1404829.0, -110.6717
1404829.0, -110.979
1404829.0, -111.2957
1404829.0, -111.3039
1404830.0, -111.0036
1404830.0, -111.0617
1404830.0, -111.2559
1404830.0, -110.8743
1404830.0, -110.1543
1404830.0, -109.8815
1404830.0, -109.7941
1404831.0, -109.579
1404831.0, -109.3405
1404831.0, -109.9771
1404831.0, -109.94
1404831.0, -109.2294
1404831.0, -109.2176
1404831.0, -109.4472
1404831.0, -109.4067
1404832.0, -109.2666
1404832.0, -109.1503
1404832.0, -109.0165
1404832.0, -109.1812
1404832.0, -109.3384
1404832.0, -109.4883
1404832.0, -109.2129
1404833.0, -108.6516
1404833.0, -108.3539
1404833.0, -108.1368
1404833.0, -108.0639
1404833.0, -108.1139
1404833.0, -107.9923
1404833.0, -107.7972
1404833.0, -108.23
1404834.0, -108.5138
1404834.0, -108.6486
1404834.0, -109.1124
1404834.0, -109.7458
1404834.0, -109.8036
1404834.0, -109.5341
1404834.0, -109.2261
1404835.0, -108.7833
1404835.0, -108.5704
1404835.0, -108.4659
1404835.0, -108.0083
1404835.0, -107.5341
1404835.0, -107.0432
1404835.0, -106.7135
1404835.0, -106.4857
1404836.0, -106.4656
1404836.0, -106.6179
1404836.0, -106.7302
1404836.0, -106.8733
1404836.0, -106.95
1404836.0, -106.9927
1404836.0, -107.246
1404837.0, -107.3876
1404837.0, -107.4175
1404837.0, -107.4959
1404837.0, -107.5693
1404837.0, -107.8251
1404837.0, -108.2008
1404837.0, -108.2049
1404837.0, -108.0012
1404838.0, -108.1085
1404838.0, -108.3538
1404838.0, -107.6643
1404838.0, -107.3335
1404838.0, -107.3616
1404838.0, -107.1773
1404838.0, -106.9712
1404839.0, -106.8429
1404839.0, -106.7593
1404839.0, -106.655
1404839.0, -106.5519
1404839.0, -106.5599
1404839.0, -106.6423
1404839.0, -106.8893
1404839.0, -106.9485
1404840.0, -106.8199
1404840.0, -107.0382
1404840.0, -107.425
1404840.0, -107.5965
1404840.0, -107.6807
1404840.0, -107.5342
1404840.0, -107.2048
1404841.0, -107.0628
1404841.0, -106.9848
1404841.0, -106.6947
1404841.0, -106.529
1404841.0, -106.4876
1404841.0, -106.4358
1404841.0, -106.4184
1404841.0, -106.5553
1404842.0, -106.8064
1404842.0, -106.9189
1404842.0, -106.977
1404842.0, -106.9145
1404842.0, -106.7535
1404842.0, -106.8648
1404842.0, -106.9474
1404843.0, -107.0012
1404843.0, -107.0316
1404843.0, -107.037
1404843.0, -107.0633
1404843.0, -107.0952
1404843.0, -107.1296
1404843.0, -107.1677
1404843.0, -107.0938
1404844.0, -106.9464
1404844.0, -106.8253
1404844.0, -106.8133
1404844.0, -106.9106
1404844.0, -107.0237
1404844.0, -107.1838
1404844.0, -107.3828
1404845.0, -107.6234
1404845.0, -107.9386
1404845.0, -108.3172
1404845.0, -108.5666
1404845.0, -108.7509
1404845.0, -108.5719
1404845.0, -108.4396
1404845.0, -108.354
1404846.0, -108.2907
1404846.0, -108.2578
1404846.0, -108.3791
1404846.0, -108.6132
1404846.0, -108.6365
1404846.0, -108.5569
1404846.0, -108.6716
1404847.0, -108.8816
1404847.0, -109.0738
1404847.0, -109.2537
1404847.0, -109.4212
1404847.0, -109.4262
1404847.0, -109.3187
1404847.0, -109.1167
1404847.0, -108.8143
1404848.0, -108.5959
1404848.0, -108.4001
1404848.0, -108.5521
1404848.0, -108.9437
1404848.0, -108.8536
1404848.0, -108.933
1404848.0, -109.1816
1404849.0, -109.5349
1404849.0, -110.0143
1404849.0, -110.2453
1404849.0, -110.3528
1404849.0, -110.4115
1404849.0, -110.3966
1404849.0, -110.351
1404849.0, -110.2605
1404850.0, -110.8672
1404850.0, -111.0625
1404850.0, -110.8462
1404850.0, -111.0825
1404850.0, -111.4835
1404850.0, -111.5554
1404850.0, -111.4628
1404851.0, -111.6369
1404851.0, -111.9338
1404851.0, -112.0392
1404851.0, -112.1921
1404851.0, -112.3926
1404851.0, -112.4627
1404851.0, -112.4619
1404851.0, -112.5003
1404852.0, -112.5412
1404852.0, -112.3064
1404852.0, -111.8886
1404852.0, -111.8141
1404852.0, -111.9076
1404852.0, -112.5545
1404852.0, -112.7896
1404853.0, -112.6129
1404853.0, -112.7487
1404853.0, -112.9556
1404853.0, -113.3463
1404853.0, -113.8831
1404853.0, -113.9801
1404853.0, -113.8327
1404853.0, -113.868
1404854.0, -113.9435
1404854.0, -114.1042
1404854.0, -114.2401
1404854.0, -114.3512
1404854.0, -114.0413
1404854.0, -113.4426
1404854.0, -113.2294
1404855.0, -113.1768
1404855.0, -113.2671
1404855.0, -113.5061
1404855.0, -113.7347
1404855.0, -114.0058
1404855.0, -114.0024
1404855.0, -114.0536
1404855.0, -114.1594
1404856.0, -114.2797
1404856.0, -114.4278
1404856.0, -114.4172
1404856.0, -114.31
1404856.0, -114.2387
1404856.0, -114.1593
1404856.0, -114.2316
1404857.0, -114.4024
1404857.0, -114.6422
1404857.0, -114.7676
1404857.0, -114.7785
1404857.0, -114.8135
1404857.0, -114.8265
1404857.0, -114.9366
1404857.0, -115.1041
1404858.0, -115.1746
1404858.0, -115.1996
1404858.0, -114.9007
1404858.0, -114.3707
1404858.0, -114.6188
1404858.0, -114.9095
1404858.0, -115.2428
1404859.0, -115.3105
1404859.0, -115.2155
1404859.0, -115.0599
1404859.0, -114.8096
1404859.0, -114.7811
1404859.0, -114.8689
1404859.0, -114.9567
1404859.0, -115.0832
1404860.0, -115.2329
1404860.0, -115.4228
1404860.0, -115.653
1404860.0, -115.6736
1404860.0, -115.5679
1404860.0, -115.7539
1404860.0, -116.0921
1404861.0, -116.0997
1404861.0, -115.9375
1404861.0, -115.9338
1404861.0, -115.9792
1404861.0, -115.4974
1404861.0, -115.1941
1404861.0, -115.0693
1404861.0, -115.2084
1404862.0, -115.5829
1404862.0, -116.0618
1404862.0, -116.6887
1404862.0, -117.202
1404862.0, -117.6888
1404862.0, -117.8514
1404862.0, -117.7891
1404863.0, -117.6459
1404863.0, -117.3442
1404863.0, -116.8842
1404863.0, -116.6587
1404863.0, -116.5368
1404863.0, -116.5259
1404863.0, -116.6237
1404863.0, -116.8163
1404864.0, -117.1084
1404864.0, -117.3572
1404864.0, -117.6104
1404864.0, -118.1154
1404864.0, -118.1427
1404864.0, -117.6923
1404864.0, -117.4699
1404865.0, -117.2403
1404865.0, -117.07
1404865.0, -116.9369
1404865.0, -117.1042
1404865.0, -117.4842
1404865.0, -117.8882
1404865.0, -118.3792
1404865.0, -118.8897
1404866.0, -119.0966
1404866.0, -119.0001
1404866.0, -118.7658
1404866.0, -118.3384
1404866.0, -118.2388
1404866.0, -118.2934
1404866.0, -118.2655
1404867.0, -118.234
1404867.0, -118.0095
1404867.0, -117.6551
1404867.0, -117.4965
1404867.0, -117.4489
1404867.0, -117.5124
1404867.0, -117.5805
1404867.0, -117.6886
1404868.0, -117.9679
1404868.0, -118.3748
1404868.0, -118.5307
1404868.0, -118.5616
1404868.0, -118.4275
1404868.0, -118.4835
1404868.0, -118.7298
1404869.0, -118.9037
1404869.0, -119.0927
1404869.0, -119.1547
1404869.0, -119.1372
1404869.0, -119.1002
1404869.0, -119.0237
1404869.0, -119.0129
1404869.0, -119.0328
1404870.0, -119.1796
1404870.0, -119.2839
1404870.0, -119.3456
1404870.0, -119.4315
1404870.0, -119.5194
1404870.0, -119.5397
1404870.0, -119.5156
1404871.0, -119.5848
1404871.0, -119.7015
1404871.0, -119.7661
1404871.0, -119.8118
1404871.0, -119.6905
1404871.0, -119.6743
1404871.0, -119.7634
1404871.0, -119.6161
1404872.0, -119.3462
1404872.0, -119.004
1404872.0, -118.5725
1404872.0, -118.3677
1404872.0, -118.2843
1404872.0, -118.2795
1404872.0, -118.3676
1404873.0, -118.7711
1404873.0, -119.0205
1404873.0, -119.1156
1404873.0, -119.187
1404873.0, -119.1913
1404873.0, -119.1173
1404873.0, -118.9687
1404873.0, -118.8526
1404874.0, -118.7333
1404874.0, -118.8662
1404874.0, -119.1661
1404874.0, -119.2794
1404874.0, -119.4526
1404874.0, -119.6858
1404874.0, -119.8768
1404875.0, -120.0597
1404875.0, -120.0529
1404875.0, -119.9168
1404875.0, -119.5362
1404875.0, -118.9497
1404875.0, -118.9346
1404875.0, -119.2318
1404875.0, -119.4179
1404876.0, -119.6084
1404876.0, -119.8033
1404876.0, -119.7504
1404876.0, -119.5339
1404876.0, -119.6069
1404876.0, -119.8184
1404876.0, -120.1477
1404877.0, -120.6016
1404877.0, -120.5071
1404877.0, -120.0886
1404877.0, -119.7894
1404877.0, -119.7154
1404877.0, -119.8665
1404877.0, -120.0245
1404877.0, -120.2619
1404878.0, -120.3268
1404878.0, -120.3032
1404878.0, -120.3918
1404878.0, -120.5256
1404878.0, -120.5455
1404878.0, -120.5046
1404878.0, -120.553
1404879.0, -120.7064
1404879.0, -120.9646
1404879.0, -121.0428
1404879.0, -121.0359
1404879.0, -121.2748
1404879.0, -121.6492
1404879.0, -121.7055
1404879.0, -121.595
1404880.0, -121.4739
1404880.0, -121.2902
1404880.0, -120.8383
1404880.0, -120.7309
1404880.0, -120.9679
1404880.0, -121.0723
1404880.0, -121.2031
1404881.0, -121.1611
1404881.0, -121.0127
1404881.0, -121.0975
1404881.0, -121.3024
1404881.0, -121.2155
1404881.0, -120.9741
1404881.0, -121.035
1404881.0, -120.996
1404882.0, -120.8571
1404882.0, -120.7551
1404882.0, -120.6445
1404882.0, -120.5933
1404882.0, -120.579
1404882.0, -120.417
1404882.0, -120.169
1404883.0, -120.0826
1404883.0, -120.0754
1404883.0, -120.7202
1404883.0, -121.1245
1404883.0, -121.2885
1404883.0, -121.3173
1404883.0, -121.1758
1404883.0, -121.2689
1404884.0, -121.4616
1404884.0, -121.8182
1404884.0, -122.3173
1404884.0, -122.258
1404884.0, -121.8739
1404884.0, -121.6183
1404884.0, -121.4622
1404885.0, -121.4055
1404885.0, -121.3608
1404885.0, -121.3571
1404885.0, -121.371
1404885.0, -121.4101
1404885.0, -121.4239
1404885.0, -121.4291
1404885.0, -121.5959
1404886.0, -121.7494
1404886.0, -121.8895
1404886.0, -122.1693
1404886.0, -122.5378
1404886.0, -122.9133
1404886.0, -123.3231
1404886.0, -123.3436
1404887.0, -123.116
1404887.0, -123.3346
1404887.0, -123.7679
1404887.0, -123.0201
1404887.0, -122.5784
1404887.0, -122.4429
1404887.0, -122.5166
1404887.0, -122.8319
1404888.0, -122.7105
1404888.0, -122.3784
1404888.0, -122.3005
1404888.0, -122.3216
1404888.0, -122.3558
1404888.0, -122.4318
1404888.0, -123.123
1404889.0, -123.2681
1404889.0, -122.8673
1404889.0, -122.833
1404889.0, -122.8611
1404889.0, -122.9449
1404889.0, -123.0867
1404889.0, -123.3828
1404889.0, -123.801
1404890.0, -123.7308
1404890.0, -123.3758
1404890.0, -122.9143
1404890.0, -123.0594
1404890.0, -123.811
1404890.0, -123.7247
1404890.0, -123.2818
1404891.0, -123.0643
1404891.0, -122.8783
1404891.0, -123.009
1404891.0, -123.3614
1404891.0, -123.7202
1404891.0, -124.1572
1404891.0, -124.6251
1404891.0, -124.6586
1404892.0, -124.2578
1404892.0, -124.2878
1404892.0, -124.4602
1404892.0, -124.5361
1404892.0, -124.5951
1404892.0, -124.5688
1404892.0, -124.48
1404893.0, -124.0309
1404893.0, -123.3208
1404893.0, -122.5486
1404893.0, -122.2592
1404893.0, -122.4526
1404893.0, -122.4618
1404893.0, -122.5092
1404893.0, -122.4876
1404894.0, -122.4329
1404894.0, -122.3632
1404894.0, -122.2723
1404894.0, -122.3788
1404894.0, -122.6097
1404894.0, -123.095
1404894.0, -123.1848
1404895.0, -122.8793
1404895.0, -122.7764
1404895.0, -122.6768
1404895.0, -122.7263
1404895.0, -122.8765
1404895.0, -122.9427
1404895.0, -122.9865
1404895.0, -123.0827
1404896.0, -123.2063
1404896.0, -123.5977
1404896.0, -123.568
